 ----------------------------------------------------------------------
  Optical constants for amorphous carbon.                                         
  Data from Hanner, 1988, NASA89-13380, 22 (provided by Mathis)                 
  Range 0.04-905 mic, 87 entries.                 [ZI, Feb'96]                 
 ----------------------------------------------------------------------
     wavelength         n              k                                     
      (micron)         (-)            (-)                                    
    4.00000E-02    8.40000E-01    1.08000E-01
    5.00000E-02    7.40000E-01    1.77000E-01
    6.00000E-02    6.90000E-01    3.80000E-01
    7.00000E-02    7.60000E-01    6.60000E-01
    8.00000E-02    9.30000E-01    9.00000E-01
    9.00000E-02    1.26000E+00    9.50000E-01
    1.00000E-01    1.53000E+00    8.40000E-01
    1.20000E-01    1.74000E+00    5.60000E-01
    1.40000E-01    1.70000E+00    2.02000E-01
    1.60000E-01    1.39000E+00    1.51000E-01
    1.80000E-01    1.24000E+00    1.80000E-01
    2.00000E-01    1.22000E+00    3.21000E-01
    2.20000E-01    1.19000E+00    5.70000E-01
    2.40000E-01    1.34000E+00    7.40000E-01
    2.60000E-01    1.46000E+00    7.40000E-01
    2.80000E-01    1.54000E+00    7.30000E-01
    3.00000E-01    1.60000E+00    7.20000E-01
    3.50000E-01    1.70000E+00    6.90000E-01
    4.00000E-01    1.75000E+00    6.70000E-01
    4.50000E-01    1.79000E+00    6.70000E-01
    5.00000E-01    1.82000E+00    6.80000E-01
    6.00000E-01    1.88000E+00    7.10000E-01
    7.00000E-01    1.94000E+00    7.70000E-01
    8.00000E-01    2.00000E+00    8.00000E-01
    9.00000E-01    2.02000E+00    8.50000E-01
    9.20000E-01    2.04000E+00    8.60000E-01
    9.40000E-01    2.04000E+00    8.70000E-01
    9.60000E-01    2.06000E+00    8.90000E-01
    9.80000E-01    2.06000E+00    9.00000E-01
    1.00000E+00    2.11000E+00    9.00000E-01
    1.20000E+00    2.24000E+00    9.50000E-01
    1.40000E+00    2.38000E+00    9.70000E-01
    1.60000E+00    2.46000E+00    9.90000E-01
    1.80000E+00    2.55000E+00    1.00000E+00
    2.00000E+00    2.63000E+00    1.02000E+00
    2.50000E+00    2.80000E+00    1.00000E+00
    3.00000E+00    2.86000E+00    9.90000E-01
    3.50000E+00    2.95000E+00    1.01000E+00
    4.00000E+00    3.03000E+00    1.04000E+00
    5.00000E+00    3.04000E+00    1.03000E+00
    6.00000E+00    3.15000E+00    1.15000E+00
    7.00000E+00    3.16000E+00    1.25000E+00
    8.00000E+00    3.35000E+00    1.42000E+00
    9.00000E+00    3.42000E+00    1.47000E+00
    1.00000E+01    3.55000E+00    1.54000E+00
    1.10000E+01    3.63000E+00    1.60000E+00
    1.20000E+01    3.70000E+00    1.63000E+00
    1.30000E+01    3.75000E+00    1.69000E+00
    1.40000E+01    3.84000E+00    1.74000E+00
    1.50000E+01    3.88000E+00    1.78000E+00
    1.60000E+01    3.96000E+00    1.83000E+00
    1.70000E+01    3.99000E+00    1.89000E+00
    1.80000E+01    4.10000E+00    1.95000E+00
    1.90000E+01    4.14000E+00    1.95000E+00
    2.00000E+01    4.18000E+00    1.98000E+00
    2.10000E+01    4.22000E+00    2.03000E+00
    2.30000E+01    4.31000E+00    2.08000E+00
    2.50000E+01    4.36000E+00    2.19000E+00
    2.70000E+01    4.47000E+00    2.27000E+00
    2.90000E+01    4.53000E+00    2.37000E+00
    3.10000E+01    4.61000E+00    2.42000E+00
    3.30000E+01    4.67000E+00    2.52000E+00
    3.50000E+01    4.77000E+00    2.60000E+00
    3.70000E+01    4.82000E+00    2.67000E+00
    3.90000E+01    4.91000E+00    2.72000E+00
    4.10000E+01    4.96000E+00    2.81000E+00
    4.30000E+01    5.04000E+00    2.85000E+00
    4.50000E+01    5.11000E+00    2.92000E+00
    5.00000E+01    5.25000E+00    3.00000E+00
    5.50000E+01    5.32000E+00    3.18000E+00
    6.00000E+01    5.44000E+00    3.31000E+00
    6.50000E+01    5.49000E+00    3.50000E+00
    7.00000E+01    5.67000E+00    3.70000E+00
    7.50000E+01    5.71000E+00    3.80000E+00
    8.00000E+01    5.85000E+00    4.00000E+00
    8.50000E+01    5.90000E+00    4.15000E+00
    9.00000E+01    5.99000E+00    4.30000E+00
    9.50000E+01    5.94000E+00    4.48000E+00
    1.05000E+02    6.70000E+00    4.70000E+00
    2.05000E+02    8.60000E+00    6.50000E+00
    3.05000E+02    1.02000E+01    8.00000E+00
    4.05000E+02    1.16000E+01    9.50000E+00
    5.05000E+02    1.26000E+01    1.05000E+01
    6.05000E+02    1.34000E+01    1.16000E+01
    7.05000E+02    1.41000E+01    1.25000E+01
    8.05000E+02    1.50000E+01    1.34000E+01
    9.05000E+02    1.65000E+01    1.41000E+01
