 -----------------------------------------------------
  Optical constants for SiC.                                                      
  Data from Pegourie,B. 1988, A&A 194, 335.                                       
  Range 0.03-2000 mic, 78 entries.       [ZI, Jul'96]                 
 -----------------------------------------------------
    wavelength         n               k                                     
     (micron)         (-)             (-)                                    
    3.04000E-02    7.06000E-01    1.53300E+00
    4.00000E-02    7.06000E-01    1.53300E+00
    5.04300E-02    7.06000E-01    1.53300E+00
    6.00000E-02    7.06000E-01    1.53300E+00
    7.00000E-02    7.06000E-01    1.53300E+00
    8.00000E-02    7.06000E-01    1.53300E+00
    9.12000E-02    7.06000E-01    1.53300E+00
    1.00000E-01    7.06000E-01    1.53300E+00
    1.10000E-01    7.75400E-01    1.48000E+00
    1.20000E-01    9.68800E-01    1.43000E+00
    1.30000E-01    1.26400E+00    1.38000E+00
    1.40000E-01    1.63700E+00    1.33000E+00
    1.50000E-01    2.06800E+00    1.28000E+00
    1.60000E-01    2.53300E+00    1.23000E+00
    1.70000E-01    3.00900E+00    1.18000E+00
    1.80000E-01    3.47500E+00    1.13000E+00
    1.90000E-01    3.90700E+00    1.08000E+00
    2.00000E-01    4.28500E+00    1.06100E+00
    2.10000E-01    4.59000E+00    9.00000E-01
    2.15000E-01    4.71600E+00    8.00000E-01
    2.17500E-01    4.77200E+00    7.00000E-01
    2.20000E-01    4.82500E+00    6.00000E-01
    2.30000E-01    4.99400E+00    5.00000E-01
    2.40000E-01    5.10200E+00    4.00000E-01
    2.50000E-01    5.15500E+00    3.50000E-01
    2.74000E-01    5.08200E+00    3.00000E-01
    3.00000E-01    4.74800E+00    2.50000E-01
    3.44000E-01    3.81200E+00    2.00000E-01
    3.65000E-01    3.30200E+00    1.50000E-01
    4.00000E-01    2.61600E+00    1.00000E-01
    4.40000E-01    2.59000E+00    1.04000E-01
    4.86100E-01    2.57000E+00    1.09000E-01
    5.50000E-01    2.55000E+00    1.13000E-01
    6.56200E-01    2.53000E+00    1.17000E-01
    7.00000E-01    2.51100E+00    1.21000E-01
    8.00000E-01    2.50000E+00    1.25000E-01
    9.00000E-01    2.49000E+00    1.35000E-01
    1.00000E+00    2.47400E+00    1.44000E-01
    1.25000E+00    2.49600E+00    1.74000E-01
    1.50000E+00    2.50400E+00    2.04600E-01
    1.65000E+00    2.50100E+00    2.09200E-01
    2.00000E+00    2.55100E+00    2.62500E-01
    2.20000E+00    2.58000E+00    2.75500E-01
    3.00000E+00    2.68700E+00    2.77800E-01
    3.40000E+00    2.72500E+00    2.56100E-01
    4.00000E+00    2.75600E+00    2.22900E-01
    5.00000E+00    2.76800E+00    1.52900E-01
    6.00000E+00    2.71400E+00    9.07900E-02
    7.00000E+00    2.63100E+00    7.06400E-02
    8.00000E+00    2.51400E+00    6.30800E-02
    9.00000E+00    2.32500E+00    6.87300E-02
    9.50000E+00    2.13500E+00    1.03000E-01
    9.70000E+00    2.03800E+00    1.09400E-01
    1.00000E+01    1.87900E+00    1.37600E-01
    1.10000E+01    1.25000E+00    9.47900E-01
    1.20000E+01    1.99000E+00    2.44800E+00
    1.30000E+01    4.14300E+00    2.45100E+00
    1.40000E+01    4.28300E+00    9.19200E-01
    1.50000E+01    3.93200E+00    4.79800E-01
    1.60000E+01    3.71000E+00    3.62500E-01
    1.70000E+01    3.58500E+00    2.89800E-01
    1.80000E+01    3.52400E+00    2.80300E-01
    1.90000E+01    3.48900E+00    2.82500E-01
    2.00000E+01    3.46000E+00    2.69900E-01
    2.50000E+01    3.39000E+00    2.38200E-01
    3.00000E+01    3.37800E+00    2.22700E-01
    5.00000E+01    3.39300E+00    1.84300E-01
    7.00000E+01    3.41800E+00    1.66400E-01
    1.00000E+02    3.44900E+00    1.48000E-01
    1.50000E+02    3.48600E+00    1.24500E-01
    2.00000E+02    3.51100E+00    1.01400E-01
    3.00000E+02    3.52000E+00    8.30000E-02
    5.00000E+02    3.52000E+00    8.30000E-02
    7.00000E+02    3.52000E+00    8.30000E-02
    1.00000E+03    3.52000E+00    8.30000E-02
    1.20000E+03    3.52000E+00    8.30000E-02
    1.50000E+03    3.52000E+00    8.30000E-02
    2.00000E+03    3.52000E+00    8.30000E-02
