 ---------------------------------------------------
  Optical constants for astronomical silicate.                                    
  Data from Draine & Lee, 1984, ApJ, 285, 89.                                     
  Range 0.03-2000 mic, 78 entries.     [ZI, Feb'96]                 
 ---------------------------------------------------
     wavelength         n             k                                                 
      (micron)         (-)           (-)                                                
    3.04000E-02    8.65700E-01    1.38900E-01
    4.00000E-02    8.25400E-01    2.55100E-01
    5.04300E-02    7.78900E-01    4.36000E-01
    6.00000E-02    8.89700E-01    6.73300E-01
    7.00000E-02    1.07600E+00    8.63300E-01
    8.00000E-02    1.29200E+00    8.78100E-01
    9.12000E-02    1.39900E+00    9.01800E-01
    1.00000E-01    1.59600E+00    9.25900E-01
    1.10000E-01    1.78700E+00    7.95500E-01
    1.20000E-01    1.86500E+00    7.22300E-01
    1.30000E-01    1.90400E+00    6.29800E-01
    1.40000E-01    1.91000E+00    6.38100E-01
    1.50000E-01    2.25900E+00    5.29600E-01
    1.60000E-01    2.16600E+00    2.45600E-01
    1.70000E-01    2.07800E+00    1.60100E-01
    1.80000E-01    2.01900E+00    1.10500E-01
    1.90000E-01    1.96800E+00    7.31900E-02
    2.00000E-01    1.92500E+00    5.31600E-02
    2.10000E-01    1.89200E+00    4.04900E-02
    2.15000E-01    1.87700E+00    3.49200E-02
    2.17500E-01    1.87000E+00    3.26100E-02
    2.20000E-01    1.86300E+00    3.05800E-02
    2.30000E-01    1.83700E+00    2.63900E-02
    2.40000E-01    1.81800E+00    2.64200E-02
    2.50000E-01    1.80300E+00    2.77300E-02
    2.74000E-01    1.78000E+00    2.81500E-02
    3.00000E-01    1.76200E+00    2.84400E-02
    3.44000E-01    1.74500E+00    2.87700E-02
    3.65000E-01    1.73900E+00    2.88700E-02
    4.00000E-01    1.73200E+00    2.90400E-02
    4.40000E-01    1.72700E+00    2.91300E-02
    4.86100E-01    1.72300E+00    2.92200E-02
    5.50000E-01    1.71900E+00    2.93600E-02
    6.56200E-01    1.71600E+00    2.95800E-02
    7.00000E-01    1.71500E+00    2.96700E-02
    8.00000E-01    1.71400E+00    2.98900E-02
    9.00000E-01    1.71400E+00    3.01000E-02
    1.00000E+00    1.71400E+00    3.02900E-02
    1.25000E+00    1.71400E+00    3.07300E-02
    1.50000E+00    1.71300E+00    3.15000E-02
    1.65000E+00    1.71200E+00    3.19400E-02
    2.00000E+00    1.71000E+00    3.31400E-02
    2.20000E+00    1.70900E+00    3.39200E-02
    3.00000E+00    1.69800E+00    3.72100E-02
    3.40000E+00    1.69000E+00    3.91100E-02
    4.00000E+00    1.67600E+00    4.10600E-02
    5.00000E+00    1.63600E+00    4.39900E-02
    6.00000E+00    1.57300E+00    5.04900E-02
    7.00000E+00    1.46600E+00    5.66300E-02
    8.00000E+00    1.21100E+00    1.70900E-01
    9.00000E+00    1.10600E+00    5.65700E-01
    9.50000E+00    1.21900E+00    8.14400E-01
    9.70000E+00    1.29700E+00    8.71000E-01
    1.00000E+01    1.39300E+00    9.23700E-01
    1.10000E+01    1.74700E+00    1.00200E+00
    1.20000E+01    1.99700E+00    8.78400E-01
    1.30000E+01    2.09300E+00    6.62900E-01
    1.40000E+01    1.99500E+00    4.77200E-01
    1.50000E+01    1.82300E+00    4.88300E-01
    1.60000E+01    1.72700E+00    5.82900E-01
    1.70000E+01    1.68700E+00    7.13600E-01
    1.80000E+01    1.70800E+00    8.54700E-01
    1.90000E+01    1.78100E+00    9.75900E-01
    2.00000E+01    1.89200E+00    1.05400E+00
    2.50000E+01    2.25600E+00    1.12800E+00
    3.00000E+01    2.49700E+00    1.10900E+00
    5.00000E+01    3.01600E+00    9.18700E-01
    7.00000E+01    3.23500E+00    7.06400E-01
    1.00000E+02    3.34600E+00    5.00200E-01
    1.50000E+02    3.39700E+00    3.31800E-01
    2.00000E+02    3.41300E+00    2.47900E-01
    3.00000E+02    3.42400E+00    1.64800E-01
    5.00000E+02    3.43000E+00    9.86700E-02
    7.00000E+02    3.43100E+00    7.04400E-02
    1.00000E+03    3.43200E+00    4.92900E-02
    1.20000E+03    3.43200E+00    4.10700E-02
    1.50000E+03    3.43200E+00    3.28600E-02
    2.00000E+03    3.43200E+00    2.46500E-02
