 ------------------------------------------------------------
  Optical constants for cold oxygen-rich silicates.                          
  Data from Ossenkopf, Henning & Mathis, 1992, A&A, 261, 567.                     
  Range 0.4-10000 mic, 63 entries.               [ZI, Feb'96]                  
 ------------------------------------------------------------          
     wavelength         n             k                                                 
      (micron)         (-)           (-)                                                
    4.00000E-01    1.77500E+00    8.95200E-02
    5.00000E-01    1.81400E+00    7.14400E-02
    6.25000E-01    1.82700E+00    5.89600E-02
    7.69200E-01    1.82700E+00    4.33700E-02
    1.00000E+00    1.80700E+00    4.69100E-02
    1.20500E+00    1.80600E+00    6.98500E-02
    1.42900E+00    1.82000E+00    9.11800E-02
    1.66700E+00    1.83700E+00    9.54500E-02
    2.00000E+00    1.85400E+00    1.03500E-01
    2.50000E+00    1.87300E+00    9.47200E-02
    3.12500E+00    1.87900E+00    8.84600E-02
    3.70400E+00    1.87400E+00    8.31500E-02
    4.54500E+00    1.86100E+00    7.82800E-02
    5.55600E+00    1.82700E+00    7.76400E-02
    6.66700E+00    1.76600E+00    8.51600E-02
    7.50000E+00    1.69300E+00    9.51300E-02
    7.90000E+00    1.64000E+00    1.05200E-01
    8.30000E+00    1.56100E+00    1.25300E-01
    8.60000E+00    1.47700E+00    1.59700E-01
    8.80000E+00    1.42200E+00    2.27200E-01
    9.00000E+00    1.39400E+00    2.94700E-01
    9.20000E+00    1.35500E+00    3.74600E-01
    9.40000E+00    1.33500E+00    4.78200E-01
    9.60000E+00    1.36300E+00    5.73200E-01
    9.80000E+00    1.37000E+00    6.65800E-01
    1.00000E+01    1.43900E+00    7.86700E-01
    1.02000E+01    1.52800E+00    8.51400E-01
    1.04000E+01    1.61600E+00    8.96100E-01
    1.06000E+01    1.71500E+00    9.25700E-01
    1.08000E+01    1.79600E+00    9.12000E-01
    1.10000E+01    1.86000E+00    9.10200E-01
    1.12000E+01    1.92200E+00    9.13100E-01
    1.14000E+01    1.99500E+00    9.14700E-01
    1.16000E+01    2.08000E+00    9.07300E-01
    1.18000E+01    2.17900E+00    8.39900E-01
    1.20000E+01    2.21900E+00    7.39700E-01
    1.22000E+01    2.21500E+00    6.87200E-01
    1.24000E+01    2.23500E+00    6.25100E-01
    1.26000E+01    2.22400E+00    5.63700E-01
    1.28000E+01    2.20300E+00    5.11900E-01
    1.30000E+01    2.17100E+00    4.74400E-01
    1.34000E+01    2.10200E+00    4.41100E-01
    1.38000E+01    2.05800E+00    4.31700E-01
    1.45000E+01    2.00600E+00    4.20200E-01
    1.55000E+01    1.83400E+00    4.50000E-01
    1.65000E+01    1.73000E+00    6.21000E-01
    1.75000E+01    1.73400E+00    8.50900E-01
    1.85000E+01    1.87400E+00    1.05400E+00
    1.95000E+01    2.08200E+00    1.14000E+00
    2.05000E+01    2.25500E+00    1.12600E+00
    2.15000E+01    2.36300E+00    1.08200E+00
    2.30000E+01    2.47800E+00    1.04000E+00
    2.70000E+01    2.68500E+00    8.97600E-01
    3.00000E+01    2.74300E+00    8.41800E-01
    3.60000E+01    2.92600E+00    7.34600E-01
    5.20000E+01    3.02000E+00    4.38100E-01
    1.00000E+02    3.05800E+00    2.30900E-01
    2.40000E+02    3.07300E+00    9.61300E-02
    5.50000E+02    3.07600E+00    4.19500E-02
    1.00000E+03    3.07700E+00    2.30800E-02
    2.40000E+03    3.07700E+00    9.61800E-03
    5.50000E+03    3.07700E+00    4.20000E-03
    1.00000E+04    3.07700E+00    2.29000E-03
